TITLE	G4_preAu
DATA TYPE	ULTRAVIOLET SPECTRUM
ORIGIN	JASCO
OWNER	
DATE	25/05/09
TIME	12:36:15
SPECTROMETER/DATA SYSTEM	
RESOLUTION	
DELTAX	-1
XUNITS	NANOMETERS
YUNITS	ABSORBANCE
FIRSTX	  800.0000
LASTX	  350.0000
NPOINTS	     451
FIRSTY	     0.03880
MAXY	     1.97285
MINY	     0.03436
XYDATA
800.0000	0.0387964
799.0000	0.0386489
798.0000	0.0385567
797.0000	0.0384743
796.0000	0.0385452
795.0000	0.0385964
794.0000	0.0385665
793.0000	0.0385768
792.0000	0.0386318
791.0000	0.038669
790.0000	0.0386193
789.0000	0.0384938
788.0000	0.0385302
787.0000	0.0384221
786.0000	0.0383761
785.0000	0.0382735
784.0000	0.0382946
783.0000	0.0381717
782.0000	0.0381548
781.0000	0.0380992
780.0000	0.0380983
779.0000	0.0379651
778.0000	0.0378388
777.0000	0.0379915
776.0000	0.0379951
775.0000	0.037976
774.0000	0.0379511
773.0000	0.0380588
772.0000	0.0381472
771.0000	0.0381387
770.0000	0.0380608
769.0000	0.0380763
768.0000	0.0380729
767.0000	0.0380693
766.0000	0.0379182
765.0000	0.0379427
764.0000	0.0378868
763.0000	0.0378684
762.0000	0.0378336
761.0000	0.0377888
760.0000	0.0377517
759.0000	0.0377906
758.0000	0.0376774
757.0000	0.0376807
756.0000	0.0376004
755.0000	0.0375891
754.0000	0.0376178
753.0000	0.0375598
752.0000	0.0374615
751.0000	0.0374537
750.0000	0.0373915
749.0000	0.0374304
748.0000	0.0374218
747.0000	0.0374108
746.0000	0.0373675
745.0000	0.0373176
744.0000	0.0372224
743.0000	0.0372197
742.0000	0.0371032
741.0000	0.0370442
740.0000	0.0368562
739.0000	0.0368212
738.0000	0.0367585
737.0000	0.0367579
736.0000	0.0366609
735.0000	0.0365647
734.0000	0.0365774
733.0000	0.0365506
732.0000	0.0366011
731.0000	0.0366639
730.0000	0.0365928
729.0000	0.0365402
728.0000	0.0365575
727.0000	0.0365014
726.0000	0.0364718
725.0000	0.0364174
724.0000	0.0363834
723.0000	0.0363832
722.0000	0.0363537
721.0000	0.0362937
720.0000	0.036203
719.0000	0.036187
718.0000	0.036121
717.0000	0.0360356
716.0000	0.0360388
715.0000	0.0360238
714.0000	0.0360487
713.0000	0.0360998
712.0000	0.0361486
711.0000	0.0362896
710.0000	0.03633
709.0000	0.0364809
708.0000	0.0365673
707.0000	0.0366533
706.0000	0.0366678
705.0000	0.0367846
704.0000	0.0368005
703.0000	0.0368047
702.0000	0.0367929
701.0000	0.0368201
700.0000	0.0368178
699.0000	0.0367285
698.0000	0.0366147
697.0000	0.0365656
696.0000	0.0364851
695.0000	0.0363099
694.0000	0.0361738
693.0000	0.0360859
692.0000	0.0359972
691.0000	0.0358824
690.0000	0.0358018
689.0000	0.0357308
688.0000	0.0357162
687.0000	0.0356137
686.0000	0.0355549
685.0000	0.0355197
684.0000	0.0354519
683.0000	0.0353373
682.0000	0.0353373
681.0000	0.0352852
680.0000	0.0352848
679.0000	0.0352225
678.0000	0.0352754
677.0000	0.035229
676.0000	0.0352063
675.0000	0.0352064
674.0000	0.035172
673.0000	0.0351654
672.0000	0.0351259
671.0000	0.0351236
670.0000	0.0351326
669.0000	0.0351441
668.0000	0.0351307
667.0000	0.0351
666.0000	0.0350167
665.0000	0.0350241
664.0000	0.0350036
663.0000	0.0349118
662.0000	0.0348747
661.0000	0.0348607
660.0000	0.0348407
659.0000	0.0348599
658.0000	0.0348563
657.0000	0.0348149
656.0000	0.0348264
655.0000	0.034814
654.0000	0.0348454
653.0000	0.0348501
652.0000	0.0348258
651.0000	0.0348331
650.0000	0.034863
649.0000	0.0348498
648.0000	0.0347917
647.0000	0.0347175
646.0000	0.0347191
645.0000	0.0346928
644.0000	0.0346896
643.0000	0.0346213
642.0000	0.0346194
641.0000	0.0346199
640.0000	0.0346262
639.0000	0.0346612
638.0000	0.0346837
637.0000	0.0346388
636.0000	0.0346297
635.0000	0.0346238
634.0000	0.0346296
633.0000	0.0346039
632.0000	0.0345965
631.0000	0.0346158
630.0000	0.0346078
629.0000	0.0346134
628.0000	0.034597
627.0000	0.0345609
626.0000	0.0344618
625.0000	0.034483
624.0000	0.0344385
623.0000	0.0344588
622.0000	0.0344859
621.0000	0.0345366
620.0000	0.0345562
619.0000	0.03459
618.0000	0.0346017
617.0000	0.0345684
616.0000	0.0345275
615.0000	0.0345161
614.0000	0.0345105
613.0000	0.0344304
612.0000	0.0344002
611.0000	0.0343599
610.0000	0.0344084
609.0000	0.0344204
608.0000	0.0343922
607.0000	0.0344423
606.0000	0.0344386
605.0000	0.0344901
604.0000	0.0344724
603.0000	0.0344858
602.0000	0.0345316
601.0000	0.0345642
600.0000	0.0346065
599.0000	0.0346596
598.0000	0.0347016
597.0000	0.0347115
596.0000	0.0347956
595.0000	0.0348241
594.0000	0.0348227
593.0000	0.0348127
592.0000	0.0348044
591.0000	0.0349254
590.0000	0.0350515
589.0000	0.0350743
588.0000	0.0351287
587.0000	0.035152
586.0000	0.0352523
585.0000	0.0353106
584.0000	0.0353012
583.0000	0.035305
582.0000	0.0353622
581.0000	0.0354172
580.0000	0.0354208
579.0000	0.0354332
578.0000	0.0355136
577.0000	0.0355911
576.0000	0.0356804
575.0000	0.0357765
574.0000	0.0358215
573.0000	0.0358848
572.0000	0.0358974
571.0000	0.0359001
570.0000	0.0359403
569.0000	0.0359749
568.0000	0.0360442
567.0000	0.0361116
566.0000	0.0361661
565.0000	0.0362611
564.0000	0.036295
563.0000	0.0363675
562.0000	0.0363911
561.0000	0.0364173
560.0000	0.0364755
559.0000	0.036538
558.0000	0.0366327
557.0000	0.0366765
556.0000	0.0368079
555.0000	0.0369206
554.0000	0.0370473
553.0000	0.0371015
552.0000	0.0371655
551.0000	0.0372221
550.0000	0.037209
549.0000	0.0372932
548.0000	0.0373444
547.0000	0.0373711
546.0000	0.0374332
545.0000	0.0375162
544.0000	0.0376134
543.0000	0.0376745
542.0000	0.0377286
541.0000	0.0377776
540.0000	0.0378903
539.0000	0.0379944
538.0000	0.038037
537.0000	0.0381971
536.0000	0.0382878
535.0000	0.0384543
534.0000	0.0385722
533.0000	0.0386813
532.0000	0.038809
531.0000	0.0388926
530.0000	0.0390298
529.0000	0.0391896
528.0000	0.0393349
527.0000	0.0395077
526.0000	0.0396616
525.0000	0.0398577
524.0000	0.0400385
523.0000	0.040239
522.0000	0.0404323
521.0000	0.0406855
520.0000	0.0411526
519.0000	0.0413733
518.0000	0.0416555
517.0000	0.0419439
516.0000	0.042277
515.0000	0.0425876
514.0000	0.0429402
513.0000	0.0433544
512.0000	0.0438001
511.0000	0.0442219
510.0000	0.0446668
509.0000	0.0451752
508.0000	0.0457196
507.0000	0.0463008
506.0000	0.0469127
505.0000	0.0475611
504.0000	0.0482477
503.0000	0.0490115
502.0000	0.04975
501.0000	0.050555
500.0000	0.0514152
499.0000	0.0522777
498.0000	0.0532151
497.0000	0.054156
496.0000	0.0551424
495.0000	0.0561953
494.0000	0.0572957
493.0000	0.0584824
492.0000	0.0597046
491.0000	0.0609645
490.0000	0.0622888
489.0000	0.0637068
488.0000	0.0650902
487.0000	0.0665646
486.0000	0.0680754
485.0000	0.0696245
484.0000	0.0712649
483.0000	0.0729028
482.0000	0.0746143
481.0000	0.0762753
480.0000	0.078052
479.0000	0.0798523
478.0000	0.08169
477.0000	0.0835295
476.0000	0.0854195
475.0000	0.0874171
474.0000	0.0894406
473.0000	0.091437
472.0000	0.0934881
471.0000	0.0955277
470.0000	0.0976994
469.0000	0.099834
468.0000	0.102043
467.0000	0.104287
466.0000	0.106618
465.0000	0.108978
464.0000	0.111409
463.0000	0.113795
462.0000	0.116358
461.0000	0.118919
460.0000	0.121532
459.0000	0.12423
458.0000	0.127032
457.0000	0.129982
456.0000	0.133003
455.0000	0.136136
454.0000	0.139484
453.0000	0.142994
452.0000	0.146561
451.0000	0.150369
450.0000	0.154372
449.0000	0.158579
448.0000	0.162973
447.0000	0.167492
446.0000	0.172338
445.0000	0.177221
444.0000	0.182434
443.0000	0.187872
442.0000	0.193503
441.0000	0.199437
440.0000	0.205528
439.0000	0.211949
438.0000	0.218668
437.0000	0.225573
436.0000	0.23283
435.0000	0.240412
434.0000	0.248235
433.0000	0.256348
432.0000	0.264669
431.0000	0.273276
430.0000	0.282061
429.0000	0.291107
428.0000	0.300372
427.0000	0.309788
426.0000	0.319545
425.0000	0.329601
424.0000	0.339865
423.0000	0.350301
422.0000	0.361003
421.0000	0.371872
420.0000	0.38333
419.0000	0.394206
418.0000	0.40522
417.0000	0.416259
416.0000	0.427396
415.0000	0.438567
414.0000	0.449862
413.0000	0.461213
412.0000	0.472526
411.0000	0.483901
410.0000	0.495169
409.0000	0.506426
408.0000	0.517812
407.0000	0.529139
406.0000	0.540401
405.0000	0.551703
404.0000	0.562883
403.0000	0.574162
402.0000	0.58539
401.0000	0.596722
400.0000	0.60777
399.0000	0.618995
398.0000	0.630279
397.0000	0.641592
396.0000	0.652961
395.0000	0.664287
394.0000	0.675735
393.0000	0.68719
392.0000	0.698685
391.0000	0.710167
390.0000	0.721597
389.0000	0.732952
388.0000	0.744261
387.0000	0.755756
386.0000	0.767178
385.0000	0.778691
384.0000	0.789948
383.0000	0.801011
382.0000	0.812155
381.0000	0.823265
380.0000	0.83423
379.0000	0.845061
378.0000	0.855881
377.0000	0.867338
376.0000	0.879069
375.0000	0.891108
374.0000	0.903629
373.0000	0.916846
372.0000	0.931019
371.0000	0.94618
370.0000	0.963517
369.0000	0.980889
368.0000	1.00014
367.0000	1.02104
366.0000	1.04427
365.0000	1.06983
364.0000	1.09798
363.0000	1.1291
362.0000	1.16376
361.0000	1.20193
360.0000	1.24454
359.0000	1.29141
358.0000	1.34282
357.0000	1.39992
356.0000	1.46285
355.0000	1.53117
354.0000	1.60541
353.0000	1.68686
352.0000	1.77506
351.0000	1.87102
350.0000	1.97285
